Sample Name, Sample-3
Time, March 20 14:58:03 2023
Operator, Smith
Lamp, 0
Slit,0.0
Scan From, 1100.0nm
Scan To, 190.0nm
Scan Step, 0.5nm
Sample Filter, 5
memo, 
WL(nm), Abs, T%
190.0, 1.6860, 2.06
190.5, 1.7539, 1.76
191.0, 1.8209, 1.51
191.5, 1.8454, 1.43
192.0, 1.8996, 1.26
192.5, 1.9359, 1.16
193.0, 1.9442, 1.14
193.5, 1.9710, 1.07
194.0, 1.9915, 1.02
194.5, 2.0143, 0.97
195.0, 2.0545, 0.88
195.5, 2.0761, 0.84
196.0, 2.1074, 0.78
196.5, 2.1321, 0.74
197.0, 2.1340, 0.73
197.5, 2.1513, 0.71
198.0, 2.1357, 0.73
198.5, 2.1301, 0.74
199.0, 2.1347, 0.73
199.5, 2.1312, 0.74
200.0, 2.1303, 0.74
200.5, 2.1377, 0.73
201.0, 2.1266, 0.75
201.5, 2.1105, 0.78
202.0, 2.1036, 0.79
202.5, 2.0772, 0.84
203.0, 2.0530, 0.89
203.5, 2.0189, 0.96
204.0, 1.9807, 1.05
204.5, 1.9472, 1.13
205.0, 1.9119, 1.22
205.5, 1.8857, 1.30
206.0, 1.8472, 1.42
206.5, 1.8122, 1.54
207.0, 1.7731, 1.69
207.5, 1.7344, 1.84
208.0, 1.6899, 2.04
208.5, 1.6470, 2.25
209.0, 1.6107, 2.45
209.5, 1.5759, 2.66
210.0, 1.5403, 2.88
210.5, 1.5066, 3.11
211.0, 1.4765, 3.34
211.5, 1.4445, 3.59
212.0, 1.4141, 3.85
212.5, 1.3840, 4.13
213.0, 1.3522, 4.44
213.5, 1.3218, 4.77
214.0, 1.2941, 5.08
214.5, 1.2687, 5.39
215.0, 1.2427, 5.72
215.5, 1.2178, 6.06
216.0, 1.1946, 6.39
216.5, 1.1719, 6.73
217.0, 1.1511, 7.06
217.5, 1.1295, 7.42
218.0, 1.1078, 7.80
218.5, 1.0871, 8.18
219.0, 1.0673, 8.56
219.5, 1.0484, 8.95
220.0, 1.0304, 9.32
220.5, 1.0119, 9.73
221.0, 0.9951, 10.11
221.5, 0.9777, 10.53
222.0, 0.9603, 10.96
222.5, 0.9439, 11.38
223.0, 0.9268, 11.84
223.5, 0.9107, 12.28
224.0, 0.8949, 12.74
224.5, 0.8793, 13.20
225.0, 0.8643, 13.67
225.5, 0.8483, 14.18
226.0, 0.8330, 14.69
226.5, 0.8180, 15.21
227.0, 0.8024, 15.76
227.5, 0.7866, 16.34
228.0, 0.7708, 16.95
228.5, 0.7552, 17.57
229.0, 0.7398, 18.21
229.5, 0.7241, 18.88
230.0, 0.7085, 19.56
230.5, 0.6918, 20.33
231.0, 0.6757, 21.10
231.5, 0.6592, 21.92
232.0, 0.6432, 22.74
232.5, 0.6266, 23.62
233.0, 0.6103, 24.53
233.5, 0.5946, 25.43
234.0, 0.5792, 26.35
234.5, 0.5644, 27.26
235.0, 0.5499, 28.19
235.5, 0.5356, 29.13
236.0, 0.5223, 30.04
236.5, 0.5097, 30.93
237.0, 0.4969, 31.85
237.5, 0.4847, 32.76
238.0, 0.4732, 33.64
238.5, 0.4621, 34.51
239.0, 0.4524, 35.29
239.5, 0.4429, 36.07
240.0, 0.4340, 36.81
240.5, 0.4258, 37.51
241.0, 0.4182, 38.18
241.5, 0.4111, 38.81
242.0, 0.4044, 39.41
242.5, 0.3979, 40.01
243.0, 0.3918, 40.57
243.5, 0.3861, 41.10
244.0, 0.3810, 41.59
244.5, 0.3762, 42.06
245.0, 0.3715, 42.51
245.5, 0.3673, 42.92
246.0, 0.3634, 43.31
246.5, 0.3596, 43.70
247.0, 0.3561, 44.04
247.5, 0.3525, 44.41
248.0, 0.3494, 44.73
248.5, 0.3466, 45.02
249.0, 0.3437, 45.32
249.5, 0.3411, 45.59
250.0, 0.3386, 45.86
250.5, 0.3361, 46.12
251.0, 0.3338, 46.36
251.5, 0.3316, 46.60
252.0, 0.3295, 46.82
252.5, 0.3276, 47.04
253.0, 0.3257, 47.23
253.5, 0.3240, 47.43
254.0, 0.3223, 47.60
254.5, 0.3200, 47.87
255.0, 0.3187, 48.01
255.5, 0.3173, 48.16
256.0, 0.3158, 48.33
256.5, 0.3146, 48.46
257.0, 0.3133, 48.60
257.5, 0.3122, 48.73
258.0, 0.3113, 48.84
258.5, 0.3103, 48.95
259.0, 0.3093, 49.06
259.5, 0.3084, 49.16
260.0, 0.3077, 49.24
260.5, 0.3069, 49.32
261.0, 0.3061, 49.42
261.5, 0.3053, 49.51
262.0, 0.3044, 49.62
262.5, 0.3036, 49.70
263.0, 0.3031, 49.76
263.5, 0.3025, 49.83
264.0, 0.3019, 49.90
264.5, 0.3015, 49.94
265.0, 0.3012, 49.98
265.5, 0.3008, 50.03
266.0, 0.3003, 50.08
266.5, 0.2999, 50.13
267.0, 0.2993, 50.20
267.5, 0.2989, 50.25
268.0, 0.2985, 50.29
268.5, 0.2983, 50.31
269.0, 0.2978, 50.38
269.5, 0.2976, 50.39
270.0, 0.2975, 50.41
270.5, 0.2970, 50.46
271.0, 0.2966, 50.52
271.5, 0.2962, 50.56
272.0, 0.2960, 50.58
272.5, 0.2957, 50.62
273.0, 0.2953, 50.66
273.5, 0.2951, 50.68
274.0, 0.2948, 50.72
274.5, 0.2946, 50.75
275.0, 0.2943, 50.78
275.5, 0.2939, 50.83
276.0, 0.2934, 50.88
276.5, 0.2930, 50.93
277.0, 0.2923, 51.01
277.5, 0.2920, 51.05
278.0, 0.2914, 51.12
278.5, 0.2908, 51.19
279.0, 0.2903, 51.25
279.5, 0.2895, 51.34
280.0, 0.2887, 51.43
280.5, 0.2880, 51.52
281.0, 0.2871, 51.63
281.5, 0.2861, 51.75
282.0, 0.2851, 51.87
282.5, 0.2842, 51.97
283.0, 0.2832, 52.09
283.5, 0.2822, 52.21
284.0, 0.2810, 52.35
284.5, 0.2797, 52.51
285.0, 0.2785, 52.67
285.5, 0.2768, 52.87
286.0, 0.2751, 53.07
286.5, 0.2734, 53.29
287.0, 0.2715, 53.51
287.5, 0.2698, 53.72
288.0, 0.2681, 53.93
288.5, 0.2664, 54.15
289.0, 0.2648, 54.35
289.5, 0.2631, 54.57
290.0, 0.2616, 54.75
290.5, 0.2600, 54.96
291.0, 0.2581, 55.19
291.5, 0.2564, 55.42
292.0, 0.2546, 55.64
292.5, 0.2529, 55.86
293.0, 0.2513, 56.07
293.5, 0.2497, 56.27
294.0, 0.2480, 56.49
294.5, 0.2463, 56.71
295.0, 0.2448, 56.92
295.5, 0.2432, 57.13
296.0, 0.2416, 57.33
296.5, 0.2400, 57.54
297.0, 0.2387, 57.72
297.5, 0.2373, 57.90
298.0, 0.2362, 58.06
298.5, 0.2351, 58.19
299.0, 0.2337, 58.38
299.5, 0.2326, 58.53
300.0, 0.2316, 58.67
300.5, 0.2304, 58.83
301.0, 0.2293, 58.98
301.5, 0.2283, 59.12
302.0, 0.2273, 59.25
302.5, 0.2264, 59.37
303.0, 0.2256, 59.49
303.5, 0.2248, 59.60
304.0, 0.2239, 59.72
304.5, 0.2229, 59.86
305.0, 0.2221, 59.97
305.5, 0.2212, 60.08
306.0, 0.2204, 60.20
306.5, 0.2197, 60.30
307.0, 0.2191, 60.38
307.5, 0.2184, 60.48
308.0, 0.2177, 60.57
308.5, 0.2172, 60.65
309.0, 0.2166, 60.73
309.5, 0.2158, 60.84
310.0, 0.2153, 60.91
310.5, 0.2146, 61.01
311.0, 0.2139, 61.11
311.5, 0.2135, 61.16
312.0, 0.2132, 61.21
312.5, 0.2126, 61.30
313.0, 0.2122, 61.35
313.5, 0.2117, 61.42
314.0, 0.2114, 61.46
314.5, 0.2108, 61.55
315.0, 0.2103, 61.61
315.5, 0.2098, 61.69
316.0, 0.2093, 61.76
316.5, 0.2089, 61.81
317.0, 0.2086, 61.86
317.5, 0.2082, 61.92
318.0, 0.2079, 61.96
318.5, 0.2075, 62.02
319.0, 0.2070, 62.08
319.5, 0.2069, 62.11
320.0, 0.2064, 62.17
320.5, 0.2059, 62.25
321.0, 0.2055, 62.30
321.5, 0.2053, 62.33
322.0, 0.2050, 62.38
322.5, 0.2047, 62.42
323.0, 0.2043, 62.48
323.5, 0.2040, 62.52
324.0, 0.2037, 62.56
324.5, 0.2033, 62.61
325.0, 0.2030, 62.67
325.5, 0.2025, 62.74
326.0, 0.2022, 62.77
326.5, 0.2019, 62.82
327.0, 0.2016, 62.87
327.5, 0.2014, 62.89
328.0, 0.2011, 62.93
328.5, 0.2010, 62.95
329.0, 0.2005, 63.02
329.5, 0.2002, 63.07
330.0, 0.1998, 63.13
330.5, 0.1994, 63.18
331.0, 0.1992, 63.22
331.5, 0.1990, 63.25
332.0, 0.1987, 63.29
332.5, 0.1985, 63.31
333.0, 0.1982, 63.36
333.5, 0.1979, 63.40
334.0, 0.1976, 63.45
334.5, 0.1973, 63.49
335.0, 0.1969, 63.55
335.5, 0.1965, 63.60
336.0, 0.1963, 63.64
336.5, 0.1960, 63.68
337.0, 0.1959, 63.70
337.5, 0.1956, 63.73
338.0, 0.1955, 63.75
338.5, 0.1953, 63.78
339.0, 0.1951, 63.81
339.5, 0.1963, 63.63
340.0, 0.1961, 63.67
340.5, 0.1960, 63.67
341.0, 0.1959, 63.70
341.5, 0.1955, 63.76
342.0, 0.1952, 63.79
342.5, 0.1951, 63.81
343.0, 0.1950, 63.83
343.5, 0.1949, 63.85
344.0, 0.1945, 63.89
344.5, 0.1944, 63.91
345.0, 0.1942, 63.95
345.5, 0.1939, 63.99
346.0, 0.1936, 64.03
346.5, 0.1934, 64.06
347.0, 0.1932, 64.10
347.5, 0.1930, 64.12
348.0, 0.1929, 64.14
348.5, 0.1928, 64.16
349.0, 0.1924, 64.21
349.5, 0.1922, 64.24
350.0, 0.1920, 64.27
350.5, 0.1918, 64.29
351.0, 0.1915, 64.34
351.5, 0.1912, 64.39
352.0, 0.1910, 64.41
352.5, 0.1908, 64.44
353.0, 0.1906, 64.47
353.5, 0.1904, 64.50
354.0, 0.1902, 64.53
354.5, 0.1899, 64.58
355.0, 0.1898, 64.59
355.5, 0.1896, 64.62
356.0, 0.1891, 64.69
356.5, 0.1891, 64.70
357.0, 0.1889, 64.72
357.5, 0.1888, 64.75
358.0, 0.1886, 64.77
358.5, 0.1885, 64.79
359.0, 0.1881, 64.85
359.5, 0.1880, 64.86
360.0, 0.1878, 64.89
360.5, 0.1875, 64.93
361.0, 0.1873, 64.97
361.5, 0.1872, 64.99
362.0, 0.1871, 65.00
362.5, 0.1868, 65.04
363.0, 0.1868, 65.05
363.5, 0.1867, 65.06
364.0, 0.1865, 65.09
364.5, 0.1863, 65.12
365.0, 0.1861, 65.15
365.5, 0.1859, 65.18
366.0, 0.1859, 65.18
366.5, 0.1858, 65.19
367.0, 0.1855, 65.23
367.5, 0.1854, 65.25
368.0, 0.1855, 65.24
368.5, 0.1855, 65.24
369.0, 0.1853, 65.28
369.5, 0.1850, 65.31
370.0, 0.1852, 65.29
370.5, 0.1855, 65.23
371.0, 0.1852, 65.29
371.5, 0.1853, 65.26
372.0, 0.1853, 65.27
372.5, 0.1852, 65.29
373.0, 0.1851, 65.29
373.5, 0.1850, 65.32
374.0, 0.1849, 65.33
374.5, 0.1849, 65.33
375.0, 0.1845, 65.38
375.5, 0.1844, 65.40
376.0, 0.1844, 65.41
376.5, 0.1844, 65.40
377.0, 0.1844, 65.40
377.5, 0.1842, 65.43
378.0, 0.1840, 65.46
378.5, 0.1840, 65.46
379.0, 0.1839, 65.48
379.5, 0.1837, 65.51
380.0, 0.1835, 65.54
380.5, 0.1833, 65.57
381.0, 0.1832, 65.58
381.5, 0.1832, 65.59
382.0, 0.1831, 65.61
382.5, 0.1828, 65.64
383.0, 0.1827, 65.66
383.5, 0.1826, 65.68
384.0, 0.1826, 65.68
384.5, 0.1824, 65.70
385.0, 0.1823, 65.72
385.5, 0.1820, 65.77
386.0, 0.1820, 65.77
386.5, 0.1820, 65.76
387.0, 0.1818, 65.80
387.5, 0.1816, 65.83
388.0, 0.1815, 65.84
388.5, 0.1814, 65.86
389.0, 0.1813, 65.87
389.5, 0.1811, 65.91
390.0, 0.1809, 65.93
390.5, 0.1809, 65.93
391.0, 0.1809, 65.93
391.5, 0.1809, 65.94
392.0, 0.1807, 65.97
392.5, 0.1806, 65.98
393.0, 0.1806, 65.98
393.5, 0.1804, 66.00
394.0, 0.1804, 66.01
394.5, 0.1801, 66.05
395.0, 0.1800, 66.07
395.5, 0.1799, 66.08
396.0, 0.1799, 66.08
396.5, 0.1799, 66.09
397.0, 0.1798, 66.10
397.5, 0.1795, 66.14
398.0, 0.1794, 66.15
398.5, 0.1794, 66.17
399.0, 0.1793, 66.17
399.5, 0.1792, 66.18
400.0, 0.1790, 66.22
400.5, 0.1789, 66.24
401.0, 0.1789, 66.24
401.5, 0.1788, 66.25
402.0, 0.1787, 66.27
402.5, 0.1786, 66.28
403.0, 0.1786, 66.28
403.5, 0.1784, 66.31
404.0, 0.1784, 66.31
404.5, 0.1783, 66.34
405.0, 0.1782, 66.35
405.5, 0.1781, 66.37
406.0, 0.1780, 66.37
406.5, 0.1780, 66.38
407.0, 0.1779, 66.40
407.5, 0.1778, 66.41
408.0, 0.1778, 66.41
408.5, 0.1776, 66.43
409.0, 0.1776, 66.44
409.5, 0.1775, 66.46
410.0, 0.1774, 66.47
410.5, 0.1773, 66.49
411.0, 0.1772, 66.49
411.5, 0.1771, 66.51
412.0, 0.1772, 66.50
412.5, 0.1770, 66.53
413.0, 0.1769, 66.55
413.5, 0.1769, 66.55
414.0, 0.1768, 66.56
414.5, 0.1767, 66.57
415.0, 0.1766, 66.60
415.5, 0.1765, 66.60
416.0, 0.1765, 66.61
416.5, 0.1764, 66.63
417.0, 0.1763, 66.64
417.5, 0.1762, 66.65
418.0, 0.1761, 66.66
418.5, 0.1761, 66.66
419.0, 0.1760, 66.68
419.5, 0.1760, 66.69
420.0, 0.1758, 66.71
420.5, 0.1759, 66.70
421.0, 0.1758, 66.72
421.5, 0.1757, 66.72
422.0, 0.1756, 66.74
422.5, 0.1755, 66.75
423.0, 0.1754, 66.77
423.5, 0.1754, 66.77
424.0, 0.1754, 66.78
424.5, 0.1753, 66.78
425.0, 0.1752, 66.81
425.5, 0.1752, 66.80
426.0, 0.1751, 66.81
426.5, 0.1751, 66.82
427.0, 0.1750, 66.83
427.5, 0.1750, 66.84
428.0, 0.1749, 66.85
428.5, 0.1749, 66.86
429.0, 0.1748, 66.87
429.5, 0.1747, 66.88
430.0, 0.1746, 66.89
430.5, 0.1746, 66.89
431.0, 0.1746, 66.90
431.5, 0.1745, 66.91
432.0, 0.1745, 66.92
432.5, 0.1744, 66.92
433.0, 0.1743, 66.94
433.5, 0.1743, 66.94
434.0, 0.1743, 66.94
434.5, 0.1742, 66.95
435.0, 0.1742, 66.96
435.5, 0.1741, 66.97
436.0, 0.1740, 66.98
436.5, 0.1741, 66.97
437.0, 0.1740, 66.99
437.5, 0.1739, 67.00
438.0, 0.1739, 67.01
438.5, 0.1738, 67.02
439.0, 0.1738, 67.02
439.5, 0.1738, 67.03
440.0, 0.1737, 67.04
440.5, 0.1736, 67.05
441.0, 0.1736, 67.05
441.5, 0.1736, 67.05
442.0, 0.1735, 67.07
442.5, 0.1735, 67.07
443.0, 0.1733, 67.10
443.5, 0.1733, 67.09
444.0, 0.1733, 67.10
444.5, 0.1732, 67.11
445.0, 0.1732, 67.12
445.5, 0.1730, 67.14
446.0, 0.1731, 67.13
446.5, 0.1731, 67.13
447.0, 0.1731, 67.13
447.5, 0.1730, 67.15
448.0, 0.1730, 67.15
448.5, 0.1730, 67.15
449.0, 0.1729, 67.15
449.5, 0.1729, 67.15
450.0, 0.1730, 67.15
450.5, 0.1728, 67.17
451.0, 0.1729, 67.16
451.5, 0.1728, 67.18
452.0, 0.1726, 67.20
452.5, 0.1726, 67.21
453.0, 0.1726, 67.21
453.5, 0.1725, 67.22
454.0, 0.1725, 67.21
454.5, 0.1724, 67.24
455.0, 0.1724, 67.23
455.5, 0.1723, 67.25
456.0, 0.1724, 67.23
456.5, 0.1723, 67.25
457.0, 0.1722, 67.26
457.5, 0.1721, 67.28
458.0, 0.1722, 67.27
458.5, 0.1721, 67.28
459.0, 0.1720, 67.29
459.5, 0.1720, 67.30
460.0, 0.1720, 67.29
460.5, 0.1719, 67.31
461.0, 0.1718, 67.32
461.5, 0.1718, 67.33
462.0, 0.1718, 67.33
462.5, 0.1718, 67.33
463.0, 0.1716, 67.35
463.5, 0.1716, 67.36
464.0, 0.1715, 67.38
464.5, 0.1715, 67.37
465.0, 0.1715, 67.38
465.5, 0.1715, 67.37
466.0, 0.1715, 67.38
466.5, 0.1713, 67.40
467.0, 0.1713, 67.41
467.5, 0.1713, 67.40
468.0, 0.1713, 67.40
468.5, 0.1713, 67.41
469.0, 0.1712, 67.43
469.5, 0.1712, 67.43
470.0, 0.1712, 67.42
470.5, 0.1711, 67.44
471.0, 0.1710, 67.46
471.5, 0.1710, 67.46
472.0, 0.1710, 67.45
472.5, 0.1710, 67.46
473.0, 0.1709, 67.47
473.5, 0.1709, 67.46
474.0, 0.1708, 67.48
474.5, 0.1708, 67.49
475.0, 0.1708, 67.48
475.5, 0.1707, 67.50
476.0, 0.1706, 67.51
476.5, 0.1706, 67.52
477.0, 0.1705, 67.52
477.5, 0.1706, 67.52
478.0, 0.1705, 67.53
478.5, 0.1705, 67.53
479.0, 0.1705, 67.53
479.5, 0.1704, 67.54
480.0, 0.1704, 67.54
480.5, 0.1704, 67.55
481.0, 0.1703, 67.56
481.5, 0.1702, 67.57
482.0, 0.1702, 67.57
482.5, 0.1703, 67.57
483.0, 0.1703, 67.57
483.5, 0.1701, 67.59
484.0, 0.1702, 67.58
484.5, 0.1701, 67.59
485.0, 0.1701, 67.59
485.5, 0.1700, 67.61
486.0, 0.1699, 67.62
486.5, 0.1699, 67.62
487.0, 0.1699, 67.62
487.5, 0.1699, 67.62
488.0, 0.1699, 67.62
488.5, 0.1698, 67.64
489.0, 0.1699, 67.62
489.5, 0.1698, 67.64
490.0, 0.1698, 67.64
490.5, 0.1697, 67.66
491.0, 0.1697, 67.66
491.5, 0.1696, 67.66
492.0, 0.1697, 67.66
492.5, 0.1697, 67.66
493.0, 0.1696, 67.67
493.5, 0.1696, 67.67
494.0, 0.1696, 67.67
494.5, 0.1695, 67.68
495.0, 0.1695, 67.69
495.5, 0.1694, 67.70
496.0, 0.1694, 67.71
496.5, 0.1694, 67.70
497.0, 0.1694, 67.71
497.5, 0.1694, 67.71
498.0, 0.1692, 67.73
498.5, 0.1692, 67.73
499.0, 0.1692, 67.74
499.5, 0.1692, 67.73
500.0, 0.1691, 67.74
500.5, 0.1691, 67.75
501.0, 0.1690, 67.76
501.5, 0.1690, 67.76
502.0, 0.1690, 67.76
502.5, 0.1690, 67.77
503.0, 0.1689, 67.78
503.5, 0.1690, 67.77
504.0, 0.1689, 67.78
504.5, 0.1689, 67.78
505.0, 0.1689, 67.79
505.5, 0.1688, 67.79
506.0, 0.1689, 67.79
506.5, 0.1689, 67.78
507.0, 0.1689, 67.79
507.5, 0.1688, 67.80
508.0, 0.1687, 67.81
508.5, 0.1687, 67.81
509.0, 0.1688, 67.80
509.5, 0.1687, 67.81
510.0, 0.1687, 67.81
510.5, 0.1686, 67.83
511.0, 0.1688, 67.80
511.5, 0.1688, 67.79
512.0, 0.1688, 67.79
512.5, 0.1687, 67.80
513.0, 0.1687, 67.81
513.5, 0.1687, 67.82
514.0, 0.1687, 67.81
514.5, 0.1686, 67.82
515.0, 0.1686, 67.83
515.5, 0.1686, 67.83
516.0, 0.1686, 67.83
516.5, 0.1686, 67.82
517.0, 0.1685, 67.84
517.5, 0.1685, 67.85
518.0, 0.1684, 67.85
518.5, 0.1685, 67.84
519.0, 0.1685, 67.85
519.5, 0.1685, 67.85
520.0, 0.1684, 67.86
520.5, 0.1683, 67.87
521.0, 0.1683, 67.87
521.5, 0.1684, 67.86
522.0, 0.1684, 67.86
522.5, 0.1683, 67.87
523.0, 0.1682, 67.88
523.5, 0.1682, 67.88
524.0, 0.1682, 67.89
524.5, 0.1682, 67.88
525.0, 0.1681, 67.90
525.5, 0.1682, 67.89
526.0, 0.1682, 67.89
526.5, 0.1683, 67.87
527.0, 0.1682, 67.88
527.5, 0.1682, 67.89
528.0, 0.1683, 67.87
528.5, 0.1683, 67.88
529.0, 0.1683, 67.88
529.5, 0.1682, 67.89
530.0, 0.1682, 67.89
530.5, 0.1683, 67.88
531.0, 0.1683, 67.87
531.5, 0.1683, 67.87
532.0, 0.1682, 67.88
532.5, 0.1682, 67.89
533.0, 0.1681, 67.90
533.5, 0.1683, 67.88
534.0, 0.1682, 67.88
534.5, 0.1681, 67.90
535.0, 0.1681, 67.91
535.5, 0.1681, 67.90
536.0, 0.1683, 67.88
536.5, 0.1681, 67.90
537.0, 0.1681, 67.91
537.5, 0.1680, 67.93
538.0, 0.1681, 67.90
538.5, 0.1681, 67.91
539.0, 0.1682, 67.90
539.5, 0.1680, 67.93
540.0, 0.1680, 67.92
540.5, 0.1681, 67.91
541.0, 0.1680, 67.91
541.5, 0.1680, 67.91
542.0, 0.1679, 67.93
542.5, 0.1679, 67.93
543.0, 0.1680, 67.93
543.5, 0.1679, 67.93
544.0, 0.1679, 67.93
544.5, 0.1677, 67.96
545.0, 0.1678, 67.95
545.5, 0.1678, 67.96
546.0, 0.1678, 67.95
546.5, 0.1677, 67.96
547.0, 0.1677, 67.96
547.5, 0.1677, 67.97
548.0, 0.1677, 67.96
548.5, 0.1676, 67.98
549.0, 0.1676, 67.99
549.5, 0.1675, 67.99
550.0, 0.1676, 67.99
550.5, 0.1675, 67.99
551.0, 0.1674, 68.01
551.5, 0.1674, 68.01
552.0, 0.1674, 68.02
552.5, 0.1674, 68.02
553.0, 0.1674, 68.01
553.5, 0.1674, 68.02
554.0, 0.1674, 68.02
554.5, 0.1672, 68.04
555.0, 0.1673, 68.03
555.5, 0.1672, 68.04
556.0, 0.1672, 68.04
556.5, 0.1672, 68.05
557.0, 0.1672, 68.04
557.5, 0.1672, 68.04
558.0, 0.1672, 68.05
558.5, 0.1671, 68.05
559.0, 0.1671, 68.06
559.5, 0.1672, 68.05
560.0, 0.1670, 68.07
560.5, 0.1671, 68.06
561.0, 0.1670, 68.07
561.5, 0.1670, 68.07
562.0, 0.1670, 68.07
562.5, 0.1670, 68.07
563.0, 0.1671, 68.07
563.5, 0.1670, 68.08
564.0, 0.1670, 68.08
564.5, 0.1670, 68.08
565.0, 0.1671, 68.06
565.5, 0.1669, 68.09
566.0, 0.1670, 68.07
566.5, 0.1669, 68.10
567.0, 0.1670, 68.08
567.5, 0.1670, 68.08
568.0, 0.1669, 68.09
568.5, 0.1669, 68.10
569.0, 0.1669, 68.10
569.5, 0.1668, 68.11
570.0, 0.1668, 68.11
570.5, 0.1667, 68.12
571.0, 0.1668, 68.11
571.5, 0.1668, 68.11
572.0, 0.1668, 68.10
572.5, 0.1668, 68.11
573.0, 0.1666, 68.14
573.5, 0.1668, 68.11
574.0, 0.1667, 68.12
574.5, 0.1667, 68.12
575.0, 0.1667, 68.13
575.5, 0.1667, 68.12
576.0, 0.1666, 68.14
576.5, 0.1666, 68.13
577.0, 0.1666, 68.15
577.5, 0.1667, 68.12
578.0, 0.1665, 68.15
578.5, 0.1657, 68.28
579.0, 0.1659, 68.25
579.5, 0.1658, 68.27
580.0, 0.1659, 68.25
580.5, 0.1658, 68.26
581.0, 0.1660, 68.23
581.5, 0.1661, 68.22
582.0, 0.1662, 68.21
582.5, 0.1662, 68.21
583.0, 0.1662, 68.19
583.5, 0.1663, 68.18
584.0, 0.1664, 68.17
584.5, 0.1664, 68.17
585.0, 0.1665, 68.16
585.5, 0.1663, 68.19
586.0, 0.1663, 68.19
586.5, 0.1662, 68.21
587.0, 0.1662, 68.20
587.5, 0.1664, 68.18
588.0, 0.1664, 68.17
588.5, 0.1662, 68.21
589.0, 0.1662, 68.20
589.5, 0.1662, 68.19
590.0, 0.1662, 68.20
590.5, 0.1663, 68.19
591.0, 0.1663, 68.19
591.5, 0.1662, 68.20
592.0, 0.1661, 68.21
592.5, 0.1661, 68.21
593.0, 0.1662, 68.21
593.5, 0.1660, 68.23
594.0, 0.1661, 68.22
594.5, 0.1661, 68.22
595.0, 0.1660, 68.23
595.5, 0.1660, 68.23
596.0, 0.1659, 68.25
596.5, 0.1659, 68.25
597.0, 0.1659, 68.25
597.5, 0.1659, 68.25
598.0, 0.1659, 68.25
598.5, 0.1658, 68.27
599.0, 0.1658, 68.26
599.5, 0.1659, 68.25
600.0, 0.1658, 68.26
600.5, 0.1657, 68.28
601.0, 0.1656, 68.29
601.5, 0.1657, 68.28
602.0, 0.1657, 68.28
602.5, 0.1656, 68.29
603.0, 0.1657, 68.28
603.5, 0.1655, 68.31
604.0, 0.1656, 68.29
604.5, 0.1655, 68.31
605.0, 0.1656, 68.30
605.5, 0.1655, 68.31
606.0, 0.1655, 68.32
606.5, 0.1655, 68.32
607.0, 0.1654, 68.32
607.5, 0.1654, 68.32
608.0, 0.1654, 68.34
608.5, 0.1654, 68.33
609.0, 0.1654, 68.33
609.5, 0.1654, 68.33
610.0, 0.1653, 68.34
610.5, 0.1653, 68.34
611.0, 0.1652, 68.36
611.5, 0.1653, 68.34
612.0, 0.1653, 68.35
612.5, 0.1652, 68.35
613.0, 0.1652, 68.35
613.5, 0.1652, 68.36
614.0, 0.1652, 68.36
614.5, 0.1652, 68.37
615.0, 0.1651, 68.37
615.5, 0.1652, 68.37
616.0, 0.1651, 68.37
616.5, 0.1651, 68.38
617.0, 0.1651, 68.37
617.5, 0.1650, 68.38
618.0, 0.1651, 68.37
618.5, 0.1651, 68.38
619.0, 0.1652, 68.37
619.5, 0.1651, 68.37
620.0, 0.1651, 68.38
620.5, 0.1650, 68.39
621.0, 0.1651, 68.38
621.5, 0.1650, 68.39
622.0, 0.1651, 68.38
622.5, 0.1650, 68.40
623.0, 0.1650, 68.39
623.5, 0.1650, 68.39
624.0, 0.1649, 68.40
624.5, 0.1649, 68.41
625.0, 0.1649, 68.41
625.5, 0.1649, 68.41
626.0, 0.1649, 68.41
626.5, 0.1649, 68.40
627.0, 0.1648, 68.43
627.5, 0.1649, 68.41
628.0, 0.1647, 68.43
628.5, 0.1649, 68.41
629.0, 0.1647, 68.43
629.5, 0.1649, 68.41
630.0, 0.1647, 68.44
630.5, 0.1648, 68.42
631.0, 0.1647, 68.44
631.5, 0.1647, 68.44
632.0, 0.1647, 68.44
632.5, 0.1648, 68.43
633.0, 0.1646, 68.45
633.5, 0.1647, 68.44
634.0, 0.1646, 68.45
634.5, 0.1647, 68.44
635.0, 0.1646, 68.45
635.5, 0.1646, 68.45
636.0, 0.1646, 68.46
636.5, 0.1646, 68.46
637.0, 0.1646, 68.45
637.5, 0.1646, 68.45
638.0, 0.1647, 68.44
638.5, 0.1645, 68.47
639.0, 0.1646, 68.46
639.5, 0.1645, 68.47
640.0, 0.1645, 68.47
640.5, 0.1645, 68.47
641.0, 0.1645, 68.47
641.5, 0.1644, 68.48
642.0, 0.1645, 68.48
642.5, 0.1645, 68.47
643.0, 0.1645, 68.47
643.5, 0.1645, 68.48
644.0, 0.1644, 68.48
644.5, 0.1644, 68.49
645.0, 0.1644, 68.49
645.5, 0.1645, 68.48
646.0, 0.1644, 68.48
646.5, 0.1644, 68.49
647.0, 0.1645, 68.47
647.5, 0.1644, 68.49
648.0, 0.1644, 68.49
648.5, 0.1644, 68.49
649.0, 0.1644, 68.48
649.5, 0.1643, 68.49
650.0, 0.1644, 68.49
650.5, 0.1643, 68.50
651.0, 0.1643, 68.50
651.5, 0.1643, 68.50
652.0, 0.1644, 68.49
652.5, 0.1644, 68.49
653.0, 0.1643, 68.51
653.5, 0.1643, 68.50
654.0, 0.1643, 68.51
654.5, 0.1643, 68.51
655.0, 0.1642, 68.51
655.5, 0.1643, 68.50
656.0, 0.1642, 68.51
656.5, 0.1643, 68.51
657.0, 0.1642, 68.51
657.5, 0.1642, 68.51
658.0, 0.1642, 68.51
658.5, 0.1642, 68.51
659.0, 0.1642, 68.52
659.5, 0.1643, 68.50
660.0, 0.1643, 68.51
660.5, 0.1642, 68.51
661.0, 0.1643, 68.50
661.5, 0.1643, 68.51
662.0, 0.1642, 68.52
662.5, 0.1643, 68.51
