Sample Name, Sample-1
Time, March 10 13:30:39 2023
Operator, Smith
Lamp, 0
Slit,0.0
Scan From, 1100.0nm
Scan To, 190.0nm
Scan Step, 0.5nm
Sample Filter, 5
memo, 
WL(nm), Abs, T%
190.0, 0.1825, 65.69
190.5, 0.1794, 66.15
191.0, 0.1780, 66.37
191.5, 0.1753, 66.79
192.0, 0.1728, 67.18
192.5, 0.1704, 67.55
193.0, 0.1679, 67.94
193.5, 0.1658, 68.26
194.0, 0.1636, 68.62
194.5, 0.1611, 69.01
195.0, 0.1591, 69.33
195.5, 0.1568, 69.69
196.0, 0.1550, 69.98
196.5, 0.1526, 70.37
197.0, 0.1503, 70.74
197.5, 0.1483, 71.08
198.0, 0.1456, 71.52
198.5, 0.1428, 71.97
199.0, 0.1401, 72.42
199.5, 0.1377, 72.83
200.0, 0.1351, 73.27
200.5, 0.1323, 73.74
201.0, 0.1302, 74.09
201.5, 0.1276, 74.54
202.0, 0.1251, 74.98
202.5, 0.1224, 75.44
203.0, 0.1198, 75.89
203.5, 0.1172, 76.34
204.0, 0.1148, 76.78
204.5, 0.1126, 77.16
205.0, 0.1103, 77.56
205.5, 0.1081, 77.97
206.0, 0.1060, 78.34
206.5, 0.1039, 78.72
207.0, 0.1020, 79.07
207.5, 0.1001, 79.42
208.0, 0.0982, 79.77
208.5, 0.0962, 80.13
209.0, 0.0946, 80.43
209.5, 0.0930, 80.72
210.0, 0.0915, 81.00
210.5, 0.0901, 81.27
211.0, 0.0888, 81.50
211.5, 0.0877, 81.71
212.0, 0.0865, 81.95
212.5, 0.0852, 82.18
213.0, 0.0841, 82.39
213.5, 0.0830, 82.60
214.0, 0.0819, 82.81
214.5, 0.0810, 82.99
215.0, 0.0800, 83.17
215.5, 0.0795, 83.28
216.0, 0.0785, 83.47
216.5, 0.0779, 83.57
217.0, 0.0772, 83.71
217.5, 0.0767, 83.80
218.0, 0.0761, 83.93
218.5, 0.0755, 84.04
219.0, 0.0750, 84.14
219.5, 0.0745, 84.24
220.0, 0.0741, 84.32
220.5, 0.0736, 84.42
221.0, 0.0731, 84.51
221.5, 0.0729, 84.55
222.0, 0.0725, 84.62
222.5, 0.0720, 84.72
223.0, 0.0717, 84.78
223.5, 0.0713, 84.86
224.0, 0.0710, 84.92
224.5, 0.0707, 84.97
225.0, 0.0703, 85.06
225.5, 0.0700, 85.11
226.0, 0.0698, 85.15
226.5, 0.0695, 85.21
227.0, 0.0692, 85.27
227.5, 0.0687, 85.37
228.0, 0.0684, 85.43
228.5, 0.0679, 85.53
229.0, 0.0676, 85.59
229.5, 0.0672, 85.66
230.0, 0.0668, 85.74
230.5, 0.0665, 85.80
231.0, 0.0662, 85.87
231.5, 0.0658, 85.95
232.0, 0.0654, 86.03
232.5, 0.0650, 86.10
233.0, 0.0644, 86.22
233.5, 0.0638, 86.33
234.0, 0.0636, 86.38
234.5, 0.0630, 86.49
235.0, 0.0627, 86.56
235.5, 0.0622, 86.65
236.0, 0.0617, 86.75
236.5, 0.0613, 86.83
237.0, 0.0608, 86.93
237.5, 0.0604, 87.01
238.0, 0.0599, 87.12
238.5, 0.0595, 87.20
239.0, 0.0589, 87.31
239.5, 0.0585, 87.41
240.0, 0.0581, 87.48
240.5, 0.0577, 87.56
241.0, 0.0573, 87.63
241.5, 0.0569, 87.73
242.0, 0.0565, 87.80
242.5, 0.0561, 87.89
243.0, 0.0556, 87.97
243.5, 0.0553, 88.05
244.0, 0.0550, 88.11
244.5, 0.0545, 88.21
245.0, 0.0542, 88.27
245.5, 0.0539, 88.33
246.0, 0.0536, 88.40
246.5, 0.0532, 88.47
247.0, 0.0528, 88.54
247.5, 0.0526, 88.59
248.0, 0.0522, 88.68
248.5, 0.0519, 88.73
249.0, 0.0517, 88.78
249.5, 0.0514, 88.84
250.0, 0.0510, 88.91
250.5, 0.0509, 88.94
251.0, 0.0506, 88.99
251.5, 0.0504, 89.05
252.0, 0.0501, 89.09
252.5, 0.0499, 89.14
253.0, 0.0496, 89.21
253.5, 0.0493, 89.27
254.0, 0.0490, 89.32
254.5, 0.0484, 89.45
255.0, 0.0483, 89.48
255.5, 0.0481, 89.51
256.0, 0.0480, 89.54
256.5, 0.0476, 89.61
257.0, 0.0475, 89.65
257.5, 0.0473, 89.69
258.0, 0.0471, 89.72
258.5, 0.0469, 89.77
259.0, 0.0468, 89.78
259.5, 0.0467, 89.81
260.0, 0.0464, 89.87
260.5, 0.0464, 89.87
261.0, 0.0462, 89.90
261.5, 0.0459, 89.96
262.0, 0.0458, 89.99
262.5, 0.0457, 90.02
263.0, 0.0454, 90.06
263.5, 0.0453, 90.09
264.0, 0.0452, 90.11
264.5, 0.0450, 90.16
265.0, 0.0450, 90.15
265.5, 0.0449, 90.17
266.0, 0.0448, 90.20
266.5, 0.0446, 90.24
267.0, 0.0444, 90.28
267.5, 0.0443, 90.31
268.0, 0.0441, 90.34
268.5, 0.0441, 90.35
269.0, 0.0440, 90.37
269.5, 0.0439, 90.39
270.0, 0.0438, 90.40
270.5, 0.0437, 90.42
271.0, 0.0436, 90.44
271.5, 0.0434, 90.49
272.0, 0.0433, 90.51
272.5, 0.0432, 90.52
273.0, 0.0432, 90.53
273.5, 0.0432, 90.53
274.0, 0.0430, 90.58
274.5, 0.0429, 90.59
275.0, 0.0430, 90.58
275.5, 0.0429, 90.60
276.0, 0.0428, 90.61
276.5, 0.0427, 90.63
277.0, 0.0426, 90.66
277.5, 0.0425, 90.68
278.0, 0.0424, 90.70
278.5, 0.0424, 90.70
279.0, 0.0423, 90.71
279.5, 0.0423, 90.72
280.0, 0.0423, 90.72
280.5, 0.0422, 90.73
281.0, 0.0421, 90.76
281.5, 0.0421, 90.77
282.0, 0.0419, 90.81
282.5, 0.0419, 90.80
283.0, 0.0418, 90.81
283.5, 0.0417, 90.84
284.0, 0.0418, 90.83
284.5, 0.0417, 90.84
285.0, 0.0417, 90.85
285.5, 0.0415, 90.89
286.0, 0.0415, 90.89
286.5, 0.0415, 90.90
287.0, 0.0413, 90.93
287.5, 0.0413, 90.94
288.0, 0.0411, 90.97
288.5, 0.0411, 90.98
289.0, 0.0410, 90.98
289.5, 0.0411, 90.98
290.0, 0.0410, 90.99
290.5, 0.0409, 91.01
291.0, 0.0408, 91.02
291.5, 0.0407, 91.05
292.0, 0.0407, 91.05
292.5, 0.0406, 91.08
293.0, 0.0406, 91.07
293.5, 0.0405, 91.09
294.0, 0.0405, 91.09
294.5, 0.0405, 91.09
295.0, 0.0405, 91.11
295.5, 0.0404, 91.12
296.0, 0.0404, 91.12
296.5, 0.0403, 91.14
297.0, 0.0403, 91.13
297.5, 0.0402, 91.15
298.0, 0.0401, 91.17
298.5, 0.0401, 91.18
299.0, 0.0401, 91.19
299.5, 0.0401, 91.17
300.0, 0.0401, 91.17
300.5, 0.0401, 91.19
301.0, 0.0400, 91.20
301.5, 0.0399, 91.22
302.0, 0.0398, 91.24
302.5, 0.0398, 91.24
303.0, 0.0398, 91.25
303.5, 0.0397, 91.26
304.0, 0.0397, 91.27
304.5, 0.0398, 91.24
305.0, 0.0397, 91.26
305.5, 0.0397, 91.26
306.0, 0.0395, 91.30
306.5, 0.0395, 91.30
307.0, 0.0394, 91.32
307.5, 0.0394, 91.32
308.0, 0.0394, 91.32
308.5, 0.0393, 91.35
309.0, 0.0394, 91.34
309.5, 0.0393, 91.34
310.0, 0.0394, 91.33
310.5, 0.0393, 91.35
311.0, 0.0392, 91.37
311.5, 0.0391, 91.39
312.0, 0.0391, 91.39
312.5, 0.0390, 91.42
313.0, 0.0390, 91.41
313.5, 0.0389, 91.43
314.0, 0.0389, 91.43
314.5, 0.0390, 91.41
315.0, 0.0389, 91.44
315.5, 0.0388, 91.45
316.0, 0.0388, 91.45
316.5, 0.0387, 91.47
317.0, 0.0387, 91.48
317.5, 0.0387, 91.47
318.0, 0.0386, 91.50
318.5, 0.0386, 91.49
319.0, 0.0386, 91.49
319.5, 0.0387, 91.47
320.0, 0.0386, 91.50
320.5, 0.0385, 91.52
321.0, 0.0384, 91.55
321.5, 0.0384, 91.54
322.0, 0.0384, 91.54
322.5, 0.0383, 91.55
323.0, 0.0383, 91.56
323.5, 0.0383, 91.55
324.0, 0.0383, 91.57
324.5, 0.0383, 91.56
325.0, 0.0382, 91.57
325.5, 0.0381, 91.59
326.0, 0.0381, 91.61
326.5, 0.0381, 91.61
327.0, 0.0380, 91.63
327.5, 0.0380, 91.62
328.0, 0.0379, 91.65
328.5, 0.0379, 91.64
329.0, 0.0380, 91.62
329.5, 0.0379, 91.65
330.0, 0.0378, 91.66
330.5, 0.0377, 91.68
331.0, 0.0376, 91.71
331.5, 0.0376, 91.70
332.0, 0.0376, 91.70
332.5, 0.0376, 91.70
333.0, 0.0376, 91.72
333.5, 0.0377, 91.69
334.0, 0.0376, 91.70
334.5, 0.0375, 91.73
335.0, 0.0374, 91.75
335.5, 0.0374, 91.76
336.0, 0.0373, 91.77
336.5, 0.0373, 91.77
337.0, 0.0373, 91.77
337.5, 0.0374, 91.75
338.0, 0.0374, 91.74
338.5, 0.0373, 91.76
339.0, 0.0373, 91.76
339.5, 0.0379, 91.64
340.0, 0.0377, 91.69
340.5, 0.0378, 91.67
341.0, 0.0379, 91.64
341.5, 0.0378, 91.67
342.0, 0.0376, 91.70
342.5, 0.0377, 91.69
343.0, 0.0377, 91.68
343.5, 0.0376, 91.71
344.0, 0.0377, 91.68
344.5, 0.0377, 91.69
345.0, 0.0374, 91.75
345.5, 0.0374, 91.75
346.0, 0.0375, 91.73
346.5, 0.0373, 91.77
347.0, 0.0373, 91.78
347.5, 0.0372, 91.79
348.0, 0.0373, 91.78
348.5, 0.0373, 91.78
349.0, 0.0372, 91.78
349.5, 0.0372, 91.79
350.0, 0.0371, 91.81
350.5, 0.0370, 91.83
351.0, 0.0370, 91.83
351.5, 0.0369, 91.85
352.0, 0.0369, 91.85
352.5, 0.0370, 91.84
353.0, 0.0369, 91.85
353.5, 0.0368, 91.87
354.0, 0.0368, 91.87
354.5, 0.0367, 91.89
355.0, 0.0367, 91.90
355.5, 0.0367, 91.90
356.0, 0.0367, 91.90
356.5, 0.0366, 91.93
357.0, 0.0366, 91.92
357.5, 0.0366, 91.92
358.0, 0.0365, 91.94
358.5, 0.0366, 91.93
359.0, 0.0365, 91.95
359.5, 0.0363, 91.98
360.0, 0.0363, 91.97
360.5, 0.0363, 91.98
361.0, 0.0363, 91.98
361.5, 0.0362, 92.00
362.0, 0.0362, 92.00
362.5, 0.0361, 92.02
363.0, 0.0361, 92.01
363.5, 0.0362, 92.01
364.0, 0.0361, 92.02
364.5, 0.0361, 92.03
365.0, 0.0360, 92.05
365.5, 0.0359, 92.06
366.0, 0.0359, 92.07
366.5, 0.0359, 92.07
367.0, 0.0359, 92.07
367.5, 0.0358, 92.09
368.0, 0.0358, 92.09
368.5, 0.0357, 92.10
369.0, 0.0358, 92.08
369.5, 0.0358, 92.08
370.0, 0.0357, 92.10
370.5, 0.0357, 92.10
371.0, 0.0357, 92.10
371.5, 0.0357, 92.11
372.0, 0.0357, 92.11
372.5, 0.0356, 92.13
373.0, 0.0357, 92.11
373.5, 0.0357, 92.11
374.0, 0.0356, 92.14
374.5, 0.0356, 92.12
375.0, 0.0356, 92.12
375.5, 0.0356, 92.13
376.0, 0.0355, 92.15
376.5, 0.0355, 92.16
377.0, 0.0356, 92.14
377.5, 0.0357, 92.10
378.0, 0.0357, 92.12
378.5, 0.0357, 92.12
379.0, 0.0355, 92.15
379.5, 0.0355, 92.14
380.0, 0.0355, 92.15
380.5, 0.0355, 92.16
381.0, 0.0355, 92.16
381.5, 0.0355, 92.16
382.0, 0.0356, 92.13
382.5, 0.0355, 92.14
383.0, 0.0356, 92.14
383.5, 0.0355, 92.15
384.0, 0.0355, 92.16
384.5, 0.0355, 92.16
385.0, 0.0354, 92.17
385.5, 0.0354, 92.17
386.0, 0.0353, 92.18
386.5, 0.0353, 92.18
387.0, 0.0354, 92.17
387.5, 0.0353, 92.18
388.0, 0.0353, 92.18
388.5, 0.0354, 92.18
389.0, 0.0352, 92.20
389.5, 0.0353, 92.19
390.0, 0.0353, 92.20
390.5, 0.0354, 92.18
391.0, 0.0353, 92.19
391.5, 0.0352, 92.21
392.0, 0.0354, 92.17
392.5, 0.0355, 92.16
393.0, 0.0353, 92.18
393.5, 0.0354, 92.17
394.0, 0.0353, 92.20
394.5, 0.0353, 92.20
395.0, 0.0352, 92.21
395.5, 0.0352, 92.22
396.0, 0.0352, 92.22
396.5, 0.0353, 92.19
397.0, 0.0352, 92.21
397.5, 0.0353, 92.20
398.0, 0.0353, 92.20
398.5, 0.0352, 92.22
399.0, 0.0352, 92.22
399.5, 0.0353, 92.20
400.0, 0.0353, 92.20
400.5, 0.0351, 92.23
401.0, 0.0352, 92.22
401.5, 0.0352, 92.22
402.0, 0.0353, 92.20
402.5, 0.0351, 92.23
403.0, 0.0352, 92.22
403.5, 0.0351, 92.23
404.0, 0.0352, 92.22
404.5, 0.0352, 92.22
405.0, 0.0350, 92.25
405.5, 0.0350, 92.25
406.0, 0.0351, 92.24
406.5, 0.0351, 92.24
407.0, 0.0352, 92.22
407.5, 0.0351, 92.23
408.0, 0.0351, 92.24
408.5, 0.0351, 92.24
409.0, 0.0351, 92.24
409.5, 0.0350, 92.25
410.0, 0.0350, 92.26
410.5, 0.0350, 92.26
411.0, 0.0350, 92.27
411.5, 0.0350, 92.25
412.0, 0.0350, 92.25
412.5, 0.0351, 92.25
413.0, 0.0350, 92.25
413.5, 0.0350, 92.25
414.0, 0.0350, 92.26
414.5, 0.0350, 92.26
415.0, 0.0350, 92.26
415.5, 0.0349, 92.28
416.0, 0.0350, 92.26
416.5, 0.0350, 92.27
417.0, 0.0349, 92.28
417.5, 0.0349, 92.27
418.0, 0.0350, 92.26
418.5, 0.0349, 92.28
419.0, 0.0349, 92.28
419.5, 0.0349, 92.28
420.0, 0.0349, 92.28
420.5, 0.0349, 92.29
421.0, 0.0349, 92.29
421.5, 0.0349, 92.29
422.0, 0.0348, 92.29
422.5, 0.0349, 92.29
423.0, 0.0348, 92.29
423.5, 0.0348, 92.30
424.0, 0.0348, 92.30
424.5, 0.0348, 92.30
425.0, 0.0347, 92.32
425.5, 0.0348, 92.30
426.0, 0.0348, 92.31
426.5, 0.0348, 92.30
427.0, 0.0348, 92.31
427.5, 0.0347, 92.31
428.0, 0.0347, 92.32
428.5, 0.0347, 92.32
429.0, 0.0347, 92.32
429.5, 0.0347, 92.32
430.0, 0.0347, 92.32
430.5, 0.0347, 92.32
431.0, 0.0347, 92.32
431.5, 0.0347, 92.32
432.0, 0.0346, 92.34
432.5, 0.0346, 92.33
433.0, 0.0346, 92.34
433.5, 0.0346, 92.34
434.0, 0.0346, 92.35
434.5, 0.0346, 92.34
435.0, 0.0346, 92.35
435.5, 0.0346, 92.34
436.0, 0.0346, 92.35
436.5, 0.0346, 92.35
437.0, 0.0345, 92.36
437.5, 0.0346, 92.34
438.0, 0.0345, 92.35
438.5, 0.0345, 92.36
439.0, 0.0345, 92.36
439.5, 0.0345, 92.36
440.0, 0.0346, 92.35
440.5, 0.0345, 92.35
441.0, 0.0345, 92.36
441.5, 0.0345, 92.37
442.0, 0.0345, 92.36
442.5, 0.0345, 92.36
443.0, 0.0345, 92.37
443.5, 0.0344, 92.38
444.0, 0.0344, 92.38
444.5, 0.0345, 92.37
445.0, 0.0345, 92.37
445.5, 0.0344, 92.38
446.0, 0.0345, 92.37
446.5, 0.0345, 92.37
447.0, 0.0345, 92.37
447.5, 0.0344, 92.38
448.0, 0.0343, 92.40
448.5, 0.0344, 92.39
449.0, 0.0343, 92.41
449.5, 0.0344, 92.39
450.0, 0.0343, 92.40
450.5, 0.0343, 92.41
451.0, 0.0342, 92.43
451.5, 0.0343, 92.41
452.0, 0.0341, 92.44
452.5, 0.0342, 92.42
453.0, 0.0342, 92.42
453.5, 0.0342, 92.43
454.0, 0.0342, 92.43
454.5, 0.0341, 92.44
455.0, 0.0342, 92.42
455.5, 0.0341, 92.45
456.0, 0.0342, 92.44
456.5, 0.0341, 92.45
457.0, 0.0341, 92.45
457.5, 0.0342, 92.44
458.0, 0.0341, 92.45
458.5, 0.0341, 92.44
459.0, 0.0341, 92.45
459.5, 0.0340, 92.46
460.0, 0.0341, 92.45
460.5, 0.0340, 92.46
461.0, 0.0341, 92.46
461.5, 0.0340, 92.47
462.0, 0.0341, 92.46
462.5, 0.0340, 92.47
463.0, 0.0340, 92.47
463.5, 0.0340, 92.47
464.0, 0.0340, 92.46
464.5, 0.0340, 92.47
465.0, 0.0341, 92.46
465.5, 0.0340, 92.48
466.0, 0.0340, 92.46
466.5, 0.0339, 92.48
467.0, 0.0340, 92.47
467.5, 0.0340, 92.47
468.0, 0.0340, 92.48
468.5, 0.0340, 92.48
469.0, 0.0339, 92.49
469.5, 0.0339, 92.49
470.0, 0.0339, 92.49
470.5, 0.0340, 92.48
471.0, 0.0339, 92.48
471.5, 0.0339, 92.50
472.0, 0.0339, 92.49
472.5, 0.0339, 92.48
473.0, 0.0339, 92.49
473.5, 0.0338, 92.51
474.0, 0.0338, 92.51
474.5, 0.0339, 92.50
475.0, 0.0339, 92.50
475.5, 0.0338, 92.51
476.0, 0.0338, 92.51
476.5, 0.0338, 92.51
477.0, 0.0338, 92.51
477.5, 0.0339, 92.50
478.0, 0.0338, 92.52
478.5, 0.0337, 92.53
479.0, 0.0338, 92.51
479.5, 0.0338, 92.51
480.0, 0.0338, 92.51
480.5, 0.0338, 92.51
481.0, 0.0338, 92.52
481.5, 0.0338, 92.51
482.0, 0.0338, 92.52
482.5, 0.0338, 92.52
483.0, 0.0338, 92.52
483.5, 0.0337, 92.54
484.0, 0.0338, 92.52
484.5, 0.0337, 92.53
485.0, 0.0337, 92.54
485.5, 0.0336, 92.55
486.0, 0.0337, 92.54
486.5, 0.0336, 92.55
487.0, 0.0337, 92.54
487.5, 0.0337, 92.54
488.0, 0.0337, 92.54
488.5, 0.0335, 92.57
489.0, 0.0336, 92.56
489.5, 0.0336, 92.56
490.0, 0.0336, 92.55
490.5, 0.0336, 92.56
491.0, 0.0336, 92.55
491.5, 0.0336, 92.56
492.0, 0.0336, 92.55
492.5, 0.0336, 92.56
493.0, 0.0335, 92.57
493.5, 0.0336, 92.56
494.0, 0.0336, 92.56
494.5, 0.0336, 92.56
495.0, 0.0335, 92.57
495.5, 0.0335, 92.57
496.0, 0.0335, 92.57
496.5, 0.0335, 92.57
497.0, 0.0335, 92.58
497.5, 0.0335, 92.58
498.0, 0.0334, 92.59
498.5, 0.0335, 92.57
499.0, 0.0334, 92.59
499.5, 0.0334, 92.60
500.0, 0.0334, 92.59
500.5, 0.0334, 92.59
501.0, 0.0335, 92.59
501.5, 0.0334, 92.59
502.0, 0.0334, 92.60
502.5, 0.0334, 92.59
503.0, 0.0334, 92.60
503.5, 0.0334, 92.59
504.0, 0.0334, 92.60
504.5, 0.0333, 92.61
505.0, 0.0334, 92.60
505.5, 0.0333, 92.61
506.0, 0.0333, 92.62
506.5, 0.0334, 92.60
507.0, 0.0334, 92.59
507.5, 0.0334, 92.60
508.0, 0.0334, 92.60
508.5, 0.0334, 92.61
509.0, 0.0334, 92.59
509.5, 0.0334, 92.59
510.0, 0.0334, 92.60
510.5, 0.0334, 92.59
511.0, 0.0334, 92.59
511.5, 0.0334, 92.60
512.0, 0.0334, 92.60
512.5, 0.0333, 92.61
513.0, 0.0334, 92.60
513.5, 0.0335, 92.59
514.0, 0.0334, 92.60
514.5, 0.0333, 92.61
515.0, 0.0334, 92.60
515.5, 0.0334, 92.60
516.0, 0.0334, 92.60
516.5, 0.0334, 92.59
517.0, 0.0334, 92.60
517.5, 0.0333, 92.62
518.0, 0.0333, 92.62
518.5, 0.0334, 92.60
519.0, 0.0333, 92.61
519.5, 0.0333, 92.63
520.0, 0.0332, 92.63
520.5, 0.0333, 92.62
521.0, 0.0333, 92.62
521.5, 0.0332, 92.64
522.0, 0.0332, 92.64
522.5, 0.0332, 92.63
523.0, 0.0333, 92.63
523.5, 0.0333, 92.63
524.0, 0.0332, 92.65
524.5, 0.0331, 92.65
525.0, 0.0332, 92.64
525.5, 0.0332, 92.64
526.0, 0.0332, 92.63
526.5, 0.0332, 92.64
527.0, 0.0332, 92.64
527.5, 0.0332, 92.64
528.0, 0.0332, 92.64
528.5, 0.0332, 92.65
529.0, 0.0332, 92.65
529.5, 0.0332, 92.65
530.0, 0.0332, 92.64
530.5, 0.0332, 92.65
531.0, 0.0333, 92.63
531.5, 0.0332, 92.64
532.0, 0.0331, 92.65
532.5, 0.0331, 92.66
533.0, 0.0331, 92.65
533.5, 0.0331, 92.65
534.0, 0.0331, 92.67
534.5, 0.0330, 92.67
535.0, 0.0331, 92.67
535.5, 0.0331, 92.66
536.0, 0.0332, 92.65
536.5, 0.0331, 92.67
537.0, 0.0331, 92.66
537.5, 0.0331, 92.66
538.0, 0.0331, 92.66
538.5, 0.0331, 92.67
539.0, 0.0331, 92.67
539.5, 0.0330, 92.68
540.0, 0.0331, 92.66
540.5, 0.0331, 92.66
541.0, 0.0330, 92.68
541.5, 0.0331, 92.67
542.0, 0.0330, 92.67
542.5, 0.0331, 92.67
543.0, 0.0330, 92.69
543.5, 0.0330, 92.68
544.0, 0.0329, 92.70
544.5, 0.0330, 92.68
545.0, 0.0330, 92.68
545.5, 0.0330, 92.67
546.0, 0.0330, 92.68
546.5, 0.0329, 92.69
547.0, 0.0330, 92.68
547.5, 0.0330, 92.68
548.0, 0.0330, 92.69
548.5, 0.0330, 92.68
549.0, 0.0329, 92.70
549.5, 0.0330, 92.68
550.0, 0.0330, 92.68
550.5, 0.0330, 92.68
551.0, 0.0330, 92.68
551.5, 0.0330, 92.69
552.0, 0.0330, 92.68
552.5, 0.0330, 92.68
553.0, 0.0330, 92.69
553.5, 0.0330, 92.69
554.0, 0.0330, 92.69
554.5, 0.0329, 92.70
555.0, 0.0329, 92.70
555.5, 0.0329, 92.70
556.0, 0.0329, 92.70
556.5, 0.0329, 92.71
557.0, 0.0329, 92.70
557.5, 0.0330, 92.69
558.0, 0.0329, 92.71
558.5, 0.0329, 92.69
559.0, 0.0329, 92.70
559.5, 0.0330, 92.69
560.0, 0.0329, 92.71
560.5, 0.0329, 92.71
561.0, 0.0328, 92.72
561.5, 0.0329, 92.71
562.0, 0.0329, 92.70
562.5, 0.0328, 92.72
563.0, 0.0328, 92.72
563.5, 0.0329, 92.71
564.0, 0.0328, 92.72
564.5, 0.0329, 92.70
565.0, 0.0328, 92.72
565.5, 0.0329, 92.71
566.0, 0.0328, 92.72
566.5, 0.0329, 92.71
567.0, 0.0329, 92.70
567.5, 0.0329, 92.71
568.0, 0.0329, 92.71
568.5, 0.0328, 92.72
569.0, 0.0328, 92.72
569.5, 0.0328, 92.72
570.0, 0.0329, 92.71
570.5, 0.0328, 92.73
571.0, 0.0328, 92.72
571.5, 0.0328, 92.73
572.0, 0.0328, 92.72
572.5, 0.0328, 92.73
573.0, 0.0328, 92.73
573.5, 0.0329, 92.69
574.0, 0.0328, 92.73
574.5, 0.0328, 92.72
575.0, 0.0328, 92.72
575.5, 0.0328, 92.72
576.0, 0.0328, 92.73
576.5, 0.0329, 92.71
577.0, 0.0329, 92.71
577.5, 0.0327, 92.74
578.0, 0.0328, 92.73
578.5, 0.0325, 92.80
579.0, 0.0325, 92.78
579.5, 0.0325, 92.79
580.0, 0.0325, 92.78
580.5, 0.0325, 92.79
581.0, 0.0325, 92.78
581.5, 0.0325, 92.78
582.0, 0.0326, 92.77
582.5, 0.0325, 92.78
583.0, 0.0326, 92.77
583.5, 0.0326, 92.76
584.0, 0.0326, 92.77
584.5, 0.0326, 92.76
585.0, 0.0326, 92.77
585.5, 0.0326, 92.76
586.0, 0.0326, 92.77
586.5, 0.0326, 92.77
587.0, 0.0326, 92.77
587.5, 0.0327, 92.75
588.0, 0.0327, 92.75
588.5, 0.0326, 92.76
589.0, 0.0327, 92.75
589.5, 0.0326, 92.76
590.0, 0.0327, 92.75
590.5, 0.0326, 92.77
591.0, 0.0327, 92.75
591.5, 0.0327, 92.76
592.0, 0.0326, 92.76
592.5, 0.0326, 92.77
593.0, 0.0326, 92.76
593.5, 0.0326, 92.77
594.0, 0.0326, 92.77
594.5, 0.0327, 92.76
595.0, 0.0326, 92.78
595.5, 0.0326, 92.78
596.0, 0.0326, 92.78
596.5, 0.0326, 92.76
597.0, 0.0326, 92.77
597.5, 0.0326, 92.78
598.0, 0.0327, 92.75
598.5, 0.0326, 92.76
599.0, 0.0326, 92.76
599.5, 0.0326, 92.77
600.0, 0.0326, 92.77
600.5, 0.0326, 92.77
601.0, 0.0326, 92.77
601.5, 0.0325, 92.78
602.0, 0.0326, 92.77
602.5, 0.0325, 92.79
603.0, 0.0325, 92.78
603.5, 0.0326, 92.77
604.0, 0.0325, 92.78
604.5, 0.0325, 92.80
605.0, 0.0325, 92.79
605.5, 0.0325, 92.78
606.0, 0.0326, 92.77
606.5, 0.0325, 92.78
607.0, 0.0325, 92.78
607.5, 0.0326, 92.77
608.0, 0.0326, 92.78
608.5, 0.0325, 92.79
609.0, 0.0325, 92.78
609.5, 0.0325, 92.78
610.0, 0.0326, 92.78
610.5, 0.0325, 92.78
611.0, 0.0326, 92.77
611.5, 0.0325, 92.78
612.0, 0.0325, 92.79
612.5, 0.0325, 92.78
613.0, 0.0325, 92.80
613.5, 0.0325, 92.79
614.0, 0.0325, 92.80
614.5, 0.0326, 92.77
615.0, 0.0325, 92.78
615.5, 0.0325, 92.79
616.0, 0.0325, 92.79
616.5, 0.0325, 92.80
617.0, 0.0325, 92.80
617.5, 0.0325, 92.79
618.0, 0.0325, 92.79
618.5, 0.0325, 92.80
619.0, 0.0325, 92.78
619.5, 0.0325, 92.78
620.0, 0.0324, 92.80
620.5, 0.0325, 92.80
621.0, 0.0324, 92.81
621.5, 0.0324, 92.81
622.0, 0.0324, 92.80
622.5, 0.0325, 92.78
623.0, 0.0324, 92.81
623.5, 0.0324, 92.81
624.0, 0.0324, 92.81
624.5, 0.0325, 92.79
625.0, 0.0324, 92.80
625.5, 0.0325, 92.79
626.0, 0.0325, 92.79
626.5, 0.0325, 92.80
627.0, 0.0324, 92.81
627.5, 0.0324, 92.80
628.0, 0.0325, 92.79
628.5, 0.0324, 92.81
629.0, 0.0324, 92.81
629.5, 0.0324, 92.81
630.0, 0.0324, 92.81
630.5, 0.0324, 92.82
631.0, 0.0324, 92.80
631.5, 0.0324, 92.80
632.0, 0.0324, 92.82
632.5, 0.0323, 92.82
633.0, 0.0325, 92.80
633.5, 0.0324, 92.80
634.0, 0.0324, 92.81
634.5, 0.0325, 92.80
635.0, 0.0324, 92.81
635.5, 0.0325, 92.80
636.0, 0.0324, 92.81
636.5, 0.0324, 92.80
637.0, 0.0324, 92.80
637.5, 0.0324, 92.81
638.0, 0.0324, 92.80
638.5, 0.0324, 92.82
639.0, 0.0324, 92.80
639.5, 0.0324, 92.80
640.0, 0.0324, 92.80
640.5, 0.0324, 92.82
641.0, 0.0324, 92.81
641.5, 0.0324, 92.80
642.0, 0.0324, 92.82
642.5, 0.0324, 92.81
643.0, 0.0324, 92.82
643.5, 0.0324, 92.81
644.0, 0.0324, 92.81
644.5, 0.0323, 92.82
645.0, 0.0324, 92.82
645.5, 0.0323, 92.83
646.0, 0.0324, 92.82
646.5, 0.0324, 92.82
647.0, 0.0324, 92.81
647.5, 0.0324, 92.81
648.0, 0.0324, 92.81
648.5, 0.0324, 92.82
649.0, 0.0324, 92.81
649.5, 0.0324, 92.82
650.0, 0.0324, 92.81
650.5, 0.0324, 92.82
651.0, 0.0323, 92.83
651.5, 0.0323, 92.83
652.0, 0.0323, 92.83
652.5, 0.0325, 92.80
653.0, 0.0323, 92.83
653.5, 0.0324, 92.82
654.0, 0.0324, 92.81
654.5, 0.0323, 92.82
655.0, 0.0323, 92.83
655.5, 0.0323, 92.82
656.0, 0.0323, 92.84
656.5, 0.0323, 92.83
657.0, 0.0323, 92.82
657.5, 0.0323, 92.83
658.0, 0.0324, 92.82
658.5, 0.0323, 92.83
659.0, 0.0323, 92.83
659.5, 0.0323, 92.84
660.0, 0.0323, 92.84
660.5, 0.0323, 92.83
661.0, 0.0324, 92.82
